File: TGA & DTA Data Files/TGA&DTA_PU_Sample2.txt
Time(sec)	Temp(C)	DTA(uV)	TGA(mg)
0.000000	28.3351	-0.745000	2.190300
19	28.9572	-0.728000	2.189098
38	30.3963	-0.833000	2.178299
57	32.5293	-0.963000	2.171101
76	35.0088	-0.983000	2.177498
95	37.8638	-0.989000	2.160297
114	40.8806	-0.923000	2.143497
133	43.8877	-0.876000	2.148800
152	47.0787	-0.808000	2.142597
171	50.2664	-0.773000	2.131397
190	53.3957	-0.759000	2.132599
209	56.6203	-0.683000	2.147198
228	59.7898	-0.618000	2.153099
247	62.9363	-0.666000	2.163200
266	66.0403	-0.669000	2.173397
285	69.2292	-0.691000	2.175098
304	72.3992	-0.746000	2.188900
323	75.5242	-0.762000	2.202400
342	78.7825	-0.805000	2.195000
361	81.8976	-0.939000	2.183701
380	85.0991	-0.982000	2.185200
399	88.2393	-1.043000	2.161098
418	91.3858	-1.032000	2.168900
437	94.4908	-1.059000	2.174698
456	97.5211	-1.056000	2.159298
475	100.673	-1.065000	2.174599
494	103.701	-1.137000	2.175400
513	106.846	-1.164000	2.169998
532	109.957	-1.168000	2.176800
551	113.013	-1.209000	2.168999
570	116.139	-1.268000	2.194698
589	119.193	-1.304000	2.176998
608	122.367	-1.273000	2.191200
627	125.47	-1.441000	2.187298
646	128.686	-1.454000	2.192497
665	131.793	-1.442000	2.187599
684	134.941	-1.465000	2.183399
703	138.083	-1.509000	2.183098
722	141.15	-1.615000	2.202698
741	144.283	-1.580000	2.214600
760	147.329	-1.632000	2.202999
779	150.496	-1.737000	2.216698
798	153.562	-1.750000	2.225899
817	156.72	-1.759000	2.214397
836	159.907	-1.808000	2.214699
855	163.032	-1.872000	2.226498
874	166.216	-1.932000	2.232800
893	169.375	-1.929000	2.235298
912	172.577	-1.946000	2.225899
931	175.678	-1.956000	2.229500
950	178.837	-1.966000	2.235199
969	181.973	-2.066000	2.211300
988	185.06	-2.042000	2.240997
1007	188.257	-2.022000	2.239998
1026	191.331	-1.987000	2.242897
1045	194.51	-2.185000	2.236599
1064	197.614	-2.149000	2.252998
1083	200.749	-2.105000	2.250900
1102	203.885	-2.318000	2.268799
1121	207.022	-2.286000	2.298500
1140	210.257	-2.238000	2.287899
1159	213.378	-2.354000	2.285999
1178	216.559	-2.341000	2.285500
1197	219.647	-2.483000	2.277798
1216	222.772	-2.483000	2.292999
1235	225.811	-2.560000	2.294998
1254	228.943	-2.606000	2.309799
1273	232.048	-2.736000	2.294899
1292	235.163	-2.749000	2.303497
1311	238.344	-2.772000	2.301998
1330	241.49	-2.947000	2.295898
1349	244.689	-2.901000	2.282101
1368	247.814	-3.036000	2.263100
1387	250.948	-3.017000	2.250999
1406	253.983	-3.147000	2.238697
1425	257.097	-3.284000	2.243401
1444	260.121	-3.406000	2.226997
1463	263.28	-3.523000	2.174797
1482	266.355	-3.638000	2.167000
1501	269.528	-3.803000	2.171997
1520	272.652	-3.948000	2.118698
1539	275.808	-4.107000	2.079098
1558	278.97	-4.305000	2.012501
1577	282.054	-4.504000	1.988598
1596	285.122	-4.800000	1.963398
1615	288.182	-5.018000	1.897301
1634	291.288	-5.137000	1.850800
1653	294.326	-5.168000	1.837601
1672	297.486	-5.211000	1.775497
1691	300.607	-5.136000	1.753098
1710	303.826	-4.943000	1.731197
1729	306.991	-4.809000	1.719799
1748	310.204	-4.778000	1.732998
1767	313.319	-4.606000	1.706898
1786	316.493	-4.487000	1.695499
1805	319.589	-4.562000	1.668598
1824	322.706	-4.564000	1.641598
1843	325.795	-4.514000	1.598999
1862	328.861	-4.726000	1.591499
1881	332.02	-4.713000	1.584099
1900	335.167	-4.821000	1.534000
1919	338.34	-4.933000	1.493797
1938	341.442	-5.051000	1.466499
1957	344.536	-5.119000	1.381001
1976	347.575	-5.173000	1.346600
1995	350.701	-5.275000	1.301701
2014	353.734	-5.369000	1.246998
2033	356.848	-5.509000	1.206600
2052	359.958	-5.645000	1.160900
2071	363.159	-5.787000	1.126400
2090	366.254	-5.897000	1.090599
2109	369.365	-5.968000	1.039799
2128	372.403	-6.007000	0.979198
2147	375.503	-6.046000	0.967999
2166	378.548	-6.094000	0.916901
2185	381.703	-6.126000	0.924000
2204	384.829	-5.982000	0.922699
2223	387.974	-6.114000	0.865601
2242	391.046	-6.092000	0.854500
2261	394.116	-6.309000	0.784698
2280	397.153	-6.217000	0.807198
2299	400.217	-6.430000	0.760201
2318	403.294	-6.375000	0.769798
2337	406.438	-6.502000	0.718998
2356	409.602	-6.341000	0.681000
2375	412.724	-6.443000	0.660099
2394	415.812	-6.329000	0.644798
2413	418.886	-6.276000	0.622101
2432	421.962	-6.283000	0.684299
2451	425.023	-5.842000	0.653400
2470	428.144	-5.896000	0.648800
2489	431.283	-5.813000	0.668301
2508	434.396	-6.075000	0.676598
2527	437.44	-6.234000	0.663898
2546	440.516	-6.104000	0.629101
2565	443.552	-6.344000	0.650398
2584	446.609	-6.412000	0.665298
2603	449.704	-6.284000	0.642097
2622	452.921	-6.376000	0.643600
2641	456.01	-6.667000	0.666000
2660	459.135	-6.559000	0.637100
2679	462.193	-6.489000	0.668198
2698	465.274	-6.763000	0.653999
2717	468.3	-7.010000	0.623798
2736	471.442	-6.931000	0.669498
2755	474.534	-6.792000	0.648300
2774	477.734	-6.919000	0.662800
2793	480.763	-7.152000	0.653400
2812	483.846	-7.180000	0.622799
2831	486.836	-7.036000	0.633400
2850	489.901	-6.990000	0.608200
2869	492.94	-7.208000	0.590797
2888	496.103	-7.447001	0.599499
2907	499.2	-7.300000	0.646999
2926	502.318	-7.245000	0.662300
2945	505.359	-7.579000	0.673000
2964	508.386	-7.456000	0.645000
2983	511.467	-7.540000	0.609299
3002	514.583	-7.817000	0.638298
3021	517.707	-7.634000	0.731800
3040	520.842	-7.920001	0.631199
3059	523.905	-8.033000	0.692200
3078	526.913	-7.819000	0.670097
3097	529.996	-8.101001	0.683300
3116	532.991	-8.393001	0.671497
3135	536.162	-8.294001	0.590599
3154	539.282	-8.228001	0.601799
3173	542.414	-8.366000	0.635998
3192	545.413	-8.712001	0.621899
3211	548.476	-8.500000	0.662098
3230	551.523	-8.460000	0.656097
3249	554.656	-8.745001	0.636497
3268	557.808	-8.832001	0.650898
3287	560.896	-8.718000	0.608799
3306	563.948	-8.723001	0.638100
3325	566.966	-8.958000	0.632198
3344	570.019	-9.257000	0.659599
3363	573.093	-9.109000	0.636898
3382	576.248	-8.997001	0.609299
3401	579.35	-9.352000	0.617001
3420	582.37	-9.570001	0.561600
3439	585.362	-9.452001	0.657200
3458	588.399	-9.385000	0.650101
3477	591.481	-9.762000	0.650600
3496	594.589	-9.994000	0.647697
3515	597.747	-9.865001	0.684097
3534	600.766	-9.773001	0.615799
3553	603.822	-10.218	0.584000
3572	606.863	-10.168	0.623100
3591	609.982	-10.064	0.565998
3610	613.137	-10.479	0.534000
3629	616.259	-10.589	0.594700
3648	619.337	-10.474	0.543598
3667	622.382	-10.861	0.557499
3686	625.474	-10.996	0.557999
3705	628.575	-10.761	0.527599
3724	631.821	-11.245	0.518700
3743	634.86	-11.383	0.527599
3762	637.907	-11.157	0.529198
3781	640.952	-11.517	0.512699
3800	643.987	-11.472	0.472900
3819	647.193	-11.316	0.488098
3838	650.234	-11.639	0.473198
3857	653.315	-11.647	0.458199
3876	656.321	-11.31	0.481098
3895	659.409	-11.832	0.477898
3914	662.559	-11.547	0.467899
3933	665.644	-11.703	0.473297
3952	668.711	-11.873	0.484200
3971	671.688	-11.687	0.457699
3990	674.736	-12.174	0.466000
4009	677.86	-11.979	0.490200
4028	680.916	-11.987	0.471699
4047	683.976	-12.22	0.510300
4066	686.991	-11.85	0.467499
4085	690.065	-12.296	0.472797
4104	693.17	-12.269	0.534599
4123	696.328	-12.145	0.523598
4142	699.389	-12.435	0.489799
4161	702.324	-12.34	0.495697
4180	705.381	-12.608	0.466801
4199	708.479	-12.735	0.502800
4218	711.647	-12.516	0.468998
4237	714.688	-12.97	0.522198
4256	717.669	-12.694	0.534599
4275	720.74	-12.765	0.554600
4294	723.803	-13.003	0.497799
4313	726.952	-13.006	0.548000
4332	730.011	-13.19	0.549599
4351	732.981	-13.014	0.537899
4370	736.028	-13.654	0.545898
4389	739.129	-13.187	0.506599
4408	742.24	-13.618	0.557899
4427	745.248	-13.35	0.527100
4446	748.222	-13.662	0.514599
4465	751.312	-13.185	0.514099
4484	754.485	-13.505	0.520599
4503	757.455	-13.462	0.617897
4522	760.465	-13.844	0.510998
4541	763.42	-13.521	0.548199
4560	766.521	-13.652	0.568600
4579	769.437	-13.446	0.526100
4598	772.523	-13.844	0.546898
4617	775.646	-13.601	0.534100
4636	778.662	-13.997	0.538498
4655	781.738	-13.771	0.566998
4674	784.628	-14.135	0.535900
4693	787.689	-14.032	0.479797
4712	790.831	-14.447	0.559998
4731	793.739	-14.287	0.553398
4750	796.749	-14.4	0.544998
4769	799.848	-14.398	0.496700
4788	802.942	-14.292	0.582600
4807	805.911	-14.541	0.507500
4826	808.944	-14.398	0.544399
4845	811.99	-14.834	0.563999
4864	815.171	-14.755	0.532497
4883	818.142	-14.53	0.518799
4902	821.111	-15.106	0.524700
4921	824.235	-14.833	0.491699
4940	827.402	-14.732	0.542198
4959	830.402	-15.214	0.541599
4978	833.437	-15.237	0.518200
4997	836.543	-14.887	0.534798
5016	839.572	-15.106	0.541599
5035	842.622	-15.195	0.562901
5054	845.628	-15.111	0.520100
5073	848.655	-15.069	0.514797
5092	851.771	-15.169	0.528599
5111	854.734	-14.944	0.518299
5130	857.737	-15.359	0.462997
5149	860.884	-15.405	0.531097
5168	863.831	-15.644	0.491798
5187	866.85	-15.753	0.499901
5206	869.937	-15.696	0.547897
5225	873.059	-15.946	0.473297
5244	876.04	-16.222	0.510098
5263	879.029	-16.337	0.508698
5282	882.154	-16.47	0.528797
5301	885.254	-16.205	0.383499
5320	888.207	-16.361	0.521500
5339	891.32	-16.501	0.522499
5358	894.438	-16.355	0.559998
5377	897.369	-16.394	0.479698
5396	900.448	-16.575	0.515800
5403	901.666	-16.593	0.484299