File: TGA & DTA Data Files/TGA&DTA_PU_Sample1.txt
Time(sec)	Temp(C)	DTA(uV)	TGA(mg)
0.000000	28.3585	-0.534000	1.640202
19	28.8806	-0.534000	1.653603
38	30.2803	-0.695000	1.694801
57	32.4087	-0.749000	1.679001
76	34.9043	-0.745000	1.684002
95	37.8153	-0.697000	1.736702
114	40.8183	-0.638000	1.613300
133	43.9195	-0.620000	1.626602
152	47.072	-0.580000	1.595200
171	50.2133	-0.562000	1.611801
190	53.4042	-0.545000	1.639099
209	56.5216	-0.503000	1.672901
228	59.7406	-0.475000	1.626701
247	62.8597	-0.478000	1.713600
266	66.0008	-0.494000	1.767101
285	69.1858	-0.543000	1.696301
304	72.3335	-0.564000	1.672401
323	75.5896	-0.601000	1.632202
342	78.7816	-0.631000	1.668602
361	82.0352	-0.476000	1.648003
380	85.0652	-0.119000	1.624203
399	88.2185	0.048000	1.621101
418	91.2992	-0.064000	1.661900
437	94.3645	-0.254000	1.665501
456	97.4645	-0.411000	1.656101
475	100.53	-0.544000	1.650700
494	103.705	-0.661000	1.644699
513	106.82	-0.760000	1.614799
532	110.086	-0.869000	1.641201
551	113.158	-0.938000	1.674103
570	116.274	-1.053000	1.723602
589	119.32	-1.199000	1.735100
608	122.441	-1.287000	1.750099
627	125.487	-1.335000	1.725002
646	128.621	-1.343000	1.806702
665	131.779	-1.307000	1.780701
684	134.918	-1.297000	1.839500
703	138.188	-1.391000	1.737499
722	141.345	-1.417000	1.840500
741	144.449	-1.366000	1.873501
760	147.539	-1.410000	1.868401
779	150.671	-1.547000	1.870800
798	153.741	-1.624000	1.858902
817	156.91	-1.668000	1.852303
836	160.042	-1.758000	1.871201
855	163.297	-1.744000	1.866802
874	166.44	-1.706000	1.888500
893	169.648	-1.594000	1.899601
912	172.696	-1.647000	1.921402
931	175.847	-1.745000	1.889702
950	178.938	-1.791000	1.957401
969	182.118	-1.656000	1.916000
988	185.248	-1.828000	1.949902
1007	188.516	-1.794000	1.918800
1026	191.666	-1.769000	1.936501
1045	194.831	-1.788000	1.967602
1064	197.88	-1.903000	1.972900
1083	201.039	-1.982000	1.948601
1102	204.087	-2.040000	1.946701
1121	207.294	-2.093000	1.989601
1140	210.499	-2.027000	1.952103
1159	213.723	-2.051000	1.890701
1178	216.796	-2.072000	1.984001
1197	219.92	-2.197000	1.944801
1216	222.966	-2.367000	1.933601
1235	226.084	-2.465000	1.897701
1254	229.193	-2.453000	1.933201
1273	232.408	-2.484000	1.897202
1292	235.601	-2.545000	1.948200
1311	238.785	-2.596000	1.964703
1330	241.861	-2.659000	1.945301
1349	244.992	-2.660000	1.967800
1368	248.05	-2.706000	1.968300
1387	251.211	-2.792000	1.989300
1406	254.32	-2.869000	1.973701
1425	257.548	-2.950000	1.928600
1444	260.641	-3.025000	1.992901
1463	263.777	-3.092000	1.975201
1482	266.833	-3.183000	2.010502
1501	269.978	-3.255000	2.018200
1520	273.021	-3.328000	2.021702
1539	276.236	-3.430000	1.969700
1558	279.404	-3.547000	1.937901
1577	282.562	-3.623000	1.962002
1596	285.59	-3.704000	2.016300
1615	288.701	-3.817000	1.936100
1634	291.758	-3.821000	2.031700
1653	294.908	-3.947000	1.962502
1672	298.052	-4.019000	2.028500
1691	301.287	-4.180000	1.991699
1710	304.349	-4.539000	1.920502
1729	307.466	-4.816000	1.985500
1748	310.523	-4.923000	1.969902
1767	313.674	-4.961000	1.935600
1786	316.757	-4.982000	1.913403
1805	320.003	-5.026000	1.822701
1824	323.142	-5.071000	1.777702
1843	326.271	-5.142000	1.756001
1862	329.318	-5.223000	1.625702
1881	332.42	-5.313000	1.540600
1900	335.477	-5.400000	1.503300
1919	338.621	-5.429000	1.441601
1938	341.783	-5.574000	1.393200
1957	344.927	-5.778000	1.406200
1976	348.024	-6.002000	1.351799
1995	351.048	-6.168000	1.302902
2014	354.179	-6.321000	1.242802
2033	357.24	-6.421000	1.232403
2052	360.427	-6.537000	1.139900
2071	363.593	-6.573000	1.055202
2090	366.783	-6.678000	0.985703
2109	369.832	-6.600000	0.986603
2128	372.979	-6.568000	0.929100
2147	375.993	-6.547000	0.855602
2166	379.194	-6.365000	0.823200
2185	382.334	-6.235000	0.763702
2204	385.505	-6.096000	0.706200
2223	388.557	-5.982000	0.753902
2242	391.632	-5.893000	0.706699
2261	394.671	-5.860000	0.716900
2280	397.716	-5.821000	0.700001
2299	400.871	-5.810000	0.757900
2318	403.977	-5.668000	0.744701
2337	407.06	-5.594000	0.714500
2356	410.081	-5.632000	0.749901
2375	413.145	-5.675000	0.715702
2394	416.163	-5.756000	0.711201
2413	419.319	-5.795000	0.744602
2432	422.441	-5.865000	0.730301
2451	425.581	-5.887000	0.753403
2470	428.614	-5.962000	0.720100
2489	431.701	-5.958000	0.768402
2508	434.741	-6.097000	0.731003
2527	437.849	-6.075000	0.758202
2546	441.001	-6.129000	0.760201
2565	444.165	-6.270000	0.712299
2584	447.215	-6.365000	0.725800
2603	450.252	-6.399000	0.745399
2622	453.345	-6.389000	0.744102
2641	456.426	-6.515000	0.755501
2660	459.651	-6.633000	0.785202
2679	462.759	-6.689000	0.798500
2698	465.843	-6.751000	0.810600
2717	468.851	-6.875000	0.767300
2736	471.933	-6.990000	0.806999
2755	475.076	-7.016000	0.801601
2774	478.217	-7.080000	0.735500
2793	481.341	-7.118001	0.803101
2812	484.325	-7.151000	0.790100
2831	487.364	-7.264000	0.787003
2850	490.396	-7.263000	0.828400
2869	493.582	-7.214000	0.765102
2888	496.695	-7.303000	0.753002
2907	499.749	-7.349000	0.740700
2926	502.792	-7.349000	0.709702
2945	505.833	-7.333000	0.738201
2964	509.065	-7.429000	0.780102
2983	512.173	-7.464000	0.735100
3002	515.256	-7.570000	0.766502
3021	518.34	-7.535000	0.805702
3040	521.38	-7.426000	0.823402
3059	524.518	-7.459001	0.823200
3078	527.644	-7.507000	0.780602
3097	530.748	-7.603000	0.807201
3116	533.75	-7.657001	0.746902
3135	536.816	-7.740000	0.777100
3154	539.914	-7.745000	0.797100
3173	543.075	-7.748000	0.825802
3192	546.2	-7.767000	0.795403
3211	549.181	-7.929000	0.789803
3230	552.271	-8.029000	0.785000
3249	555.357	-7.961000	0.785000
3268	558.541	-8.024000	0.775600
3287	561.607	-8.128000	0.807899
3306	564.604	-8.194000	0.776100
3325	567.661	-8.278001	0.768402
3344	570.703	-8.359000	0.709900
3363	573.899	-8.372001	0.781902
3382	576.96	-8.285001	0.785099
3401	579.949	-8.439000	0.679901
3420	582.995	-8.671000	0.780800
3439	586.034	-8.675000	0.712402
3458	589.218	-8.559000	0.751602
3477	592.262	-8.566000	0.725700
3496	595.255	-8.820001	0.722702
3515	598.276	-9.029000	0.716702
3534	601.346	-9.201000	0.711903
3553	604.532	-9.256001	0.684902
3572	607.582	-9.201000	0.653801
3591	610.647	-9.112000	0.665401
3610	613.684	-9.309000	0.669903
3629	616.778	-9.350000	0.667301
3648	620.017	-9.352000	0.687401
3667	623.051	-9.358001	0.632401
3686	626.148	-9.220000	0.646301
3705	629.193	-9.361000	0.612103
3724	632.299	-9.648001	0.646099
3743	635.467	-9.825001	0.652302
3762	638.456	-9.926001	0.673401
3781	641.479	-9.980000	0.676102
3800	644.519	-10.037	0.612400
3819	647.607	-10.254	0.660603
3838	650.722	-10.291	0.641602
3857	653.697	-10.335	0.652100
3876	656.702	-10.431	0.643803
3895	659.735	-10.689	0.601902
3914	662.862	-10.783	0.629700
3933	665.987	-10.679	0.648300
3952	668.979	-10.661	0.565903
3971	671.984	-10.696	0.585300
3990	675.044	-11.039	0.579102
4009	678.125	-11.322	0.535999
4028	681.183	-11.201	0.564201
4047	684.181	-11.184	0.528301
4066	687.179	-11.425	0.525600
4085	690.364	-11.549	0.535900
4104	693.362	-11.588	0.582901
4123	696.361	-11.716	0.569901
4142	699.453	-11.687	0.590302
4161	702.563	-11.634	0.562901
4180	705.614	-11.867	0.563301
4199	708.596	-11.647	0.553600
4218	711.598	-11.876	0.609303
4237	714.761	-11.991	0.583599
4256	717.836	-11.701	0.544601
4275	720.835	-11.636	0.600601
4294	723.885	-11.785	0.588802
4313	727.024	-12.014	0.643299
4332	729.977	-12.225	0.648701
4351	732.993	-12.383	0.619801
4370	736.06	-12.644	0.665802
4389	739.201	-12.493	0.653000
4408	742.21	-12.619	0.619400
4427	745.175	-13.155	0.650501
4446	748.246	-13.139	0.645702
4465	751.416	-13.373	0.699402
4484	754.373	-13.471	0.676601
4503	757.349	-13.366	0.662601
4522	760.586	-13.482	0.577000
4541	763.656	-13.328	0.676003
4560	766.696	-13.205	0.558102
4579	769.71	-13.679	0.610500
4598	772.883	-13.587	0.538002
4617	775.913	-13.328	0.507702
4636	778.908	-13.305	0.561901
4655	781.92	-13.344	0.600502
4674	785.027	-13.665	0.624203
4693	788.031	-13.808	0.665501
4712	791.042	-13.922	0.659100
4731	794.163	-13.732	-0.062298
4750	797.199	-13.67	-0.343098
4769	800.148	-13.952	-0.355198
4788	803.184	-14.019	-0.356998
4807	806.325	-13.962	-0.358398
4826	809.33	-13.998	-0.357399
4845	812.322	-14.136	-0.358101
4864	815.489	-13.981	-0.397999
4883	818.56	-13.908	-0.376499
4902	821.541	-13.851	-0.376099
4921	824.602	-13.844	-0.376499
4940	827.757	-13.893	-0.376999
4959	830.743	-14.081	-0.377998
4978	833.721	-14.098	-0.378799
4997	836.826	-14.049	-0.379200
5016	839.889	-14.306	-0.379997
5035	842.844	-14.465	-0.380100
5054	845.926	-14.406	-0.380699
5073	849.044	-14.595	-0.381397
5092	852.079	-14.871	-0.381001
5111	855.092	-14.828	-0.382599
5130	858.066	-15.302	-0.382900
5149	861.233	-15.449	-0.383801
5168	864.266	-15.209	-0.384399
5187	867.202	-15.319	-0.385201
5206	870.361	-15.43	-0.385998
5225	873.433	-15.603	-0.386101
5244	876.429	-15.59	-0.387398
5263	879.537	-15.455	-0.388500
5282	882.653	-15.673	-0.388500
5301	885.648	-15.768	-0.390099
5320	888.723	-15.894	-0.390499
5339	891.761	-15.833	-0.390697
5358	894.845	-16.052	-0.391300
5377	897.9	-15.996	-0.391598
5396	900.858	-16.17	-0.391998
5401	901.782	-16.304	-0.392200