File: DSC Data Files/DSC_PU_Sample2.txt
Time(sec)	Temp(C)	DSC(mW)
0.000000	30.3447	-0.137585
12	30.3941	-0.200249
24	32.1142	-0.397448
36	34.1605	-0.344061
48	36.2095	-0.309035
60	38.2646	-0.279797
72	40.3189	-0.252871
84	42.37	-0.226565
96	44.4179	-0.200061
108	46.4635	-0.178287
120	48.5085	-0.155710
132	50.55	-0.136895
144	52.5942	-0.122204
156	54.6355	-0.110188
168	56.6768	-0.100526
180	58.7137	-0.092763
192	60.7487	-0.083823
204	62.7851	-0.073535
216	64.8198	-0.072299
228	66.8545	-0.075450
240	68.8915	-0.082154
252	70.9166	-0.091003
264	72.9446	-0.104907
276	74.9692	-0.119266
288	76.9926	-0.136071
300	79.0158	-0.155207
312	81.0438	-0.176441
324	83.0686	-0.192678
336	85.0896	-0.212051
348	87.1017	-0.233311
360	89.1202	-0.252598
372	91.1399	-0.271114
384	93.1586	-0.288314
396	95.1736	-0.306237
408	97.1839	-0.322661
420	99.193	-0.338743
432	101.203	-0.353498
444	103.211	-0.367814
456	105.216	-0.381013
468	107.227	-0.393628
480	109.231	-0.405820
492	111.237	-0.419618
504	113.237	-0.434095
516	115.228	-0.464445
528	117.229	-0.493998
540	119.226	-0.465162
552	121.221	-0.459716
564	123.214	-0.463359
576	125.204	-0.468875
588	127.192	-0.473567
600	129.175	-0.477328
612	131.155	-0.482549
624	133.134	-0.485749
636	135.115	-0.488937
648	137.098	-0.491275
660	139.072	-0.494009
672	141.051	-0.497797
684	143.023	-0.498663
696	144.989	-0.501997
708	146.955	-0.503703
720	148.921	-0.506405
732	150.882	-0.509395
744	152.848	-0.512172
756	154.816	-0.515564
768	156.783	-0.519132
780	158.756	-0.522219
792	160.731	-0.524878
804	162.715	-0.529640
816	164.702	-0.532657
828	166.698	-0.536605
840	168.698	-0.540414
852	170.704	-0.545149
864	172.706	-0.548793
876	174.712	-0.553345
888	176.717	-0.568288
900	178.725	-0.676672
912	180.741	-0.689807
924	182.75	-0.695306
936	184.766	-0.700426
948	186.781	-0.703781
960	188.798	-0.710950
972	190.816	-0.715310
984	192.831	-0.720943
996	194.848	-0.725469
1008	196.87	-0.725566
1020	198.889	-0.728198
1032	200.906	-0.732761
1044	202.923	-0.734436
1056	204.943	-0.738978
1068	206.959	-0.742718
1080	208.979	-0.745591
1092	211.009	-0.747458
1104	213.03	-0.750084
1116	215.052	-0.754086
1128	217.068	-0.759848
1140	219.091	-0.766755
1152	220.335	-0.483908
1164	220.399	-0.301801
1176	220.402	-0.293493
1188	220.406	-0.292316
1200	220.408	-0.292760
1212	220.412	-0.292369
1224	220.42	-0.292535
1236	220.43	-0.292396
1248	220.433	-0.290352
1260	220.437	-0.290989
1272	220.441	-0.289502
1284	220.445	-0.290021
1296	220.447	-0.289860
1308	220.45	-0.289427
1320	220.453	-0.289684
1332	220.456	-0.288630
1344	220.461	-0.288453
1356	220.463	-0.287763
1368	220.47	-0.287742
1380	220.472	-0.285249
1392	220.476	-0.287480
1404	220.476	-0.285061
1416	220.481	-0.284960
1428	220.482	-0.285366
1440	220.485	-0.284665
1452	220.485	-0.284082
1464	220.487	-0.285329
1476	220.49	-0.284173
1488	220.49	-0.283007
1500	220.494	-0.283221
1512	220.495	-0.282472
1524	220.495	-0.281252
1536	220.499	-0.282130
1548	220.498	-0.282322
1560	220.502	-0.281916
1572	220.502	-0.280578
1584	220.508	-0.281316
1596	220.51	-0.279663
1608	220.513	-0.281231
1620	220.514	-0.279005
1632	220.513	-0.279182
1644	220.514	-0.279219
1656	220.518	-0.278850
1668	220.519	-0.278320
1680	220.522	-0.277823
1692	220.524	-0.278422
1704	220.527	-0.278117
1716	220.53	-0.277989
1728	220.531	-0.277887
1740	220.534	-0.276635
1752	219.893	-0.056415
1764	217.961	-0.091853
1776	215.958	-0.050696
1788	213.956	0.099284
1800	211.941	0.097048
1812	209.919	0.027386
1824	207.901	-0.024947
1836	205.883	-0.057485
1848	203.871	-0.076675
1860	201.859	-0.085492
1872	199.849	-0.089259
1884	197.837	-0.088547
1896	195.828	-0.085096
1908	193.818	-0.077178
1920	191.809	-0.071812
1932	189.801	-0.065211
1944	187.79	-0.059277
1956	185.785	-0.052178
1968	183.78	-0.042650
1980	181.777	-0.035962
1992	179.778	-0.030013
2004	177.775	-0.021710
2016	175.774	-0.017623
2028	173.774	-0.013305
2040	171.779	-0.009881
2052	169.784	-0.003322
2064	167.793	0.000851
2076	165.805	0.003986
2088	163.823	0.008581
2100	161.844	0.010523
2112	159.873	0.011609
2124	157.907	0.013589
2136	155.948	0.014397
2148	153.986	0.016628
2160	152.033	0.016874
2172	150.08	0.017205
2184	148.125	0.018206
2196	146.177	0.017773
2208	144.218	0.020052
2220	142.261	0.020185
2232	140.301	0.019731
2244	138.341	0.021394
2256	136.376	0.021501
2268	134.409	0.021892
2280	132.439	0.022266
2292	130.471	0.021229
2304	128.494	0.019763
2316	126.527	0.019185
2328	124.554	0.017633
2340	122.577	0.016467
2352	120.597	0.014129
2364	118.623	0.014948
2376	116.64	0.013097
2388	114.654	0.012754
2400	112.665	0.010946
2412	110.684	0.006078
2424	108.701	0.001573
2436	106.715	-0.002274
2448	104.73	-0.009352
2460	102.747	-0.015536
2472	100.763	-0.013888
2484	98.7839	-0.018061
2496	96.8116	-0.023320
2508	94.8432	-0.027542
2520	92.89	-0.032474
2532	90.9604	-0.038734
2544	89.0762	-0.048251
2556	87.2431	-0.058224
2568	85.466	-0.068560
2580	83.7348	-0.079468
2592	82.0535	-0.089767
2604	80.4223	-0.098760
2616	78.8471	-0.106726
2628	77.3224	-0.114457
2640	75.8455	-0.122953
2652	74.4109	-0.130667
2664	73.0207	-0.138393
2676	71.677	-0.144582
2688	70.3699	-0.151789
2700	69.1003	-0.158514
2712	67.8647	-0.165469
2724	66.6665	-0.171332
2736	65.5038	-0.177035
2748	64.3765	-0.183637
2760	63.2856	-0.188693
2772	62.2297	-0.194674
2784	61.2015	-0.199890
2796	60.2041	-0.204710
2808	59.2286	-0.209616
2820	58.279	-0.213672
2832	57.357	-0.218107
2844	56.4598	-0.221932
2856	55.586	-0.226356
2868	54.7428	-0.230674
2880	53.9239	-0.235644
2892	53.1286	-0.239881
2904	52.357	-0.244322
2916	51.6057	-0.248291
2928	50.8751	-0.252518
2940	50.1646	-0.256856
2952	49.4749	-0.260890
2964	48.8022	-0.265759
2976	48.1474	-0.268776
2988	47.5124	-0.273291
3000	46.8951	-0.276336
3012	46.2949	-0.279642
3024	45.7109	-0.283644
3036	45.1419	-0.286426
3048	44.5873	-0.289058
3060	44.0488	-0.291385
3072	43.5246	-0.292872
3084	43.0138	-0.295135
3096	42.5179	-0.297040
3108	42.0346	-0.298217
3120	41.5626	-0.299287
3132	41.1052	-0.300822
3144	40.6585	-0.302208
3156	40.224	-0.303219
3168	39.8009	-0.303818
3180	39.3886	-0.305418
3192	38.9866	-0.305712
3204	38.5949	-0.307253
3216	38.2162	-0.307606
3228	37.8397	-0.308580
3240	37.4776	-0.310147
3252	37.1243	-0.311683
3264	36.7785	-0.312672
3276	36.4431	-0.313272
3288	36.1179	-0.314272
3300	35.795	-0.314074
3312	35.4828	-0.315064
3324	35.1774	-0.316482
3336	34.8811	-0.317386
3348	34.5907	-0.318065
3360	34.307	-0.320205
3372	34.0295	-0.321286
3384	33.7577	-0.322923
3396	33.4932	-0.323897
3408	33.2358	-0.325149
3420	32.986	-0.325710
3432	32.7427	-0.325978
3444	32.5035	-0.326117
3456	32.2678	-0.326663
3468	32.0439	-0.326368
3480	31.8202	-0.326812
3492	31.6054	-0.327101
3504	31.3952	-0.327503
3516	31.1887	-0.327246
3528	30.9889	-0.327615
3540	30.7928	-0.328305
3552	30.6011	-0.329316
3564	30.4163	-0.330386
3576	30.2352	-0.331665
3588	30.0595	-0.333190
3592.1	30.0004	-0.333639