File: DSC Data Files/DSC_PU_Sample1.txt
Time(sec)	Temp(C)	DSC(mW)
0.000000	30.4567	-0.268830
3.900146	30.4029	-0.263432
7.800049	30.3661	-0.259713
11.7	30.5196	-0.288453
15.6001	30.9464	-0.395131
19.5	31.521	-0.516083
23.4001	32.1562	-0.594952
27.3	32.8128	-0.633846
31.2	33.4781	-0.649206
35.1001	34.1442	-0.652143
39	34.8119	-0.649746
42.9001	35.4789	-0.644760
46.8	36.1428	-0.638934
50.7	36.8107	-0.632664
54.6001	37.4789	-0.626672
58.5	38.1459	-0.619653
62.4001	38.8118	-0.612773
66.3	39.4788	-0.605935
70.2	40.1455	-0.599719
74.1001	40.8117	-0.592817
78	41.4783	-0.585643
81.9001	42.141	-0.579079
85.8	42.8072	-0.572033
89.7	43.4719	-0.565014
93.6001	44.1379	-0.558406
97.5	44.8025	-0.552003
101.4	45.4671	-0.546128
105.3	46.1291	-0.540136
109.2	46.7962	-0.534080
113.1	47.4619	-0.527468
117	48.1253	-0.520700
120.9	48.7898	-0.513387
124.8	49.4544	-0.506496
128.7	50.1195	-0.499145
132.6	50.7815	-0.492088
136.5	51.4464	-0.485711
140.4	52.1093	-0.478842
144.3	52.7751	-0.472154
148.2	53.4388	-0.464590
152.1	54.1029	-0.457399
156	54.7655	-0.450514
159.9	55.4311	-0.444046
163.8	56.0955	-0.435941
167.7	56.7581	-0.428328
171.6	57.4209	-0.421346
175.5	58.0832	-0.414857
179.4	58.7473	-0.408367
183.3	59.41	-0.402247
187.2	60.0706	-0.395607
191.1	60.7288	-0.389551
195	61.3883	-0.384025
198.9	62.0526	-0.379504
202.8	62.7117	-0.374716
206.7	63.3718	-0.369548
210.6	64.0343	-0.364481
214.5	64.6943	-0.359543
218.4	65.3567	-0.354188
222.3	66.0205	-0.349737
226.2	66.6808	-0.345243
230.1	67.3422	-0.340765
234	68.002	-0.336223
237.9	68.6627	-0.332269
241.8	69.3229	-0.328674
245.7	69.9853	-0.325903
249.6	70.6409	-0.322966
253.5	71.2989	-0.320537
257.4	71.9584	-0.318509
261.3	72.6178	-0.316845
265.2	73.2762	-0.315176
269.1	73.9357	-0.313759
273	74.5941	-0.312967
276.9	75.2515	-0.312549
280.8	75.9085	-0.311490
284.7	76.5693	-0.310848
288.6	77.2284	-0.311100
292.5	77.8848	-0.311019
296.4	78.5434	-0.311100
300.3	79.199	-0.311244
304.2	79.8589	-0.312560
308.1	80.5198	-0.313587
312	81.1782	-0.314839
315.9	81.8381	-0.315326
319.8	82.4951	-0.316894
323.7	83.1532	-0.318584
327.6	83.8129	-0.320606
331.5	84.467	-0.322645
335.4	85.1234	-0.324790
339.3	85.7775	-0.327128
343.2	86.4321	-0.330392
347.1	87.0899	-0.334340
351	87.7449	-0.337421
354.9	88.4032	-0.340321
358.8	89.0572	-0.343729
362.7	89.7145	-0.347581
366.6	90.3735	-0.350946
370.5	91.0331	-0.354103
374.4	91.689	-0.356713
378.3	92.3439	-0.359763
382.2	92.9994	-0.362550
386.1	93.653	-0.366365
390	94.3046	-0.370457
393.9	94.9617	-0.373951
397.8	95.6145	-0.377931
401.7	96.2662	-0.382013
405.6	96.9205	-0.385635
409.5	97.5764	-0.390546
413.4	98.2287	-0.394586
417.3	98.8822	-0.398197
421.2	99.5367	-0.402546
425.1	100.189	-0.406473
429	100.839	-0.410175
432.9	101.49	-0.414589
436.8	102.145	-0.419570
440.7	102.798	-0.424433
444.6	103.453	-0.428317
448.5	104.106	-0.432624
452.4	104.759	-0.436090
456.3	105.414	-0.439611
460.2	106.069	-0.443580
464.1	106.724	-0.446330
468	107.374	-0.448588
471.9	108.024	-0.452039
475.8	108.675	-0.456602
479.7	109.322	-0.460952
483.6	109.974	-0.464477
487.5	110.622	-0.468276
491.4	111.273	-0.471475
495.3	111.921	-0.475616
499.2	112.571	-0.480056
503.1	113.225	-0.484261
507	113.875	-0.487199
510.9	114.523	-0.490178
514.8	115.174	-0.492163
518.7	115.821	-0.501066
522.6	116.471	-0.508481
526.5	117.121	-0.489349
530.4	117.772	-0.481495
534.3	118.422	-0.479992
538.2	119.071	-0.480730
542.1	119.721	-0.482699
546	120.372	-0.483737
549.9	121.025	-0.485347
553.8	121.672	-0.486717
557.7	122.313	-0.488097
561.6	122.963	-0.490687
565.5	123.614	-0.492757
569.4	124.265	-0.494095
573.3	124.91	-0.495133
577.2	125.558	-0.496470
581.1	126.202	-0.498080
585	126.844	-0.498904
588.9	127.487	-0.500996
592.8	128.13	-0.501986
596.7	128.772	-0.501306
600.6	129.411	-0.502601
604.5	130.056	-0.504227
608.4	130.69	-0.506983
612.3	131.336	-0.510428
616.2	131.983	-0.514446
620.1	132.628	-0.516088
624	133.271	-0.516468
627.9	133.912	-0.516800
631.8	134.555	-0.518052
635.7	135.202	-0.519753
639.6	135.846	-0.520802
643.5	136.489	-0.520117
647.4	137.134	-0.520951
651.3	137.776	-0.521283
655.2	138.418	-0.521706
659.1	139.057	-0.521936
663	139.699	-0.522867
666.9	140.342	-0.523391
670.8	140.985	-0.523129
674.7	141.626	-0.522284
678.6	142.268	-0.522358
682.5	142.909	-0.522551
686.4	143.548	-0.522867
690.3	144.188	-0.524017
694.2	144.83	-0.524541
698.1	145.47	-0.524119
702	146.111	-0.523514
705.9	146.749	-0.522690
709.8	147.386	-0.521904
713.7	148.023	-0.521428
717.6	148.663	-0.521936
721.5	149.302	-0.522267
725.4	149.938	-0.522294
729.3	150.579	-0.521722
733.2	151.216	-0.521914
737.1	151.856	-0.521936
741	152.495	-0.522492
744.9	153.136	-0.522744
748.8	153.774	-0.522316
752.7	154.412	-0.522075
756.6	155.054	-0.521791
760.5	155.693	-0.521395
764.4	156.333	-0.521165
768.3	156.973	-0.521845
772.2	157.616	-0.521256
776.1	158.258	-0.520165
780	158.897	-0.520079
783.9	159.538	-0.520101
787.8	160.182	-0.520390
791.7	160.827	-0.520288
795.6	161.47	-0.519534
799.5	162.114	-0.520010
803.4	162.759	-0.520325
807.3	163.406	-0.520390
811.2	164.052	-0.520400
815.1	164.7	-0.520802
819	165.349	-0.520117
822.9	165.997	-0.518902
826.8	166.646	-0.516805
830.7	167.295	-0.516730
834.6	167.946	-0.516276
838.5	168.595	-0.515184
842.4	169.245	-0.514339
846.3	169.893	-0.513863
850.2	170.546	-0.512819
854.1	171.198	-0.511321
858	171.849	-0.510011
861.9	172.502	-0.508839
865.8	173.155	-0.507764
869.7	173.807	-0.507454
873.6	174.46	-0.506132
877.5	175.111	-0.504286
881.4	175.763	-0.504784
885.3	176.418	-0.505709
889.2	177.069	-0.505271
893.1	177.724	-0.504591
897	178.377	-0.503393
900.9	179.03	-0.502649
904.8	179.683	-0.502071
908.7	180.337	-0.500873
912.6	180.992	-0.500376
916.5	181.646	-0.499664
920.4	182.301	-0.498776
924.3	182.957	-0.497176
928.2	183.613	-0.495448
932.1	184.265	-0.495015
936	184.92	-0.495352
939.9	185.576	-0.494688
943.8	186.231	-0.493843
947.7	186.885	-0.491965
951.6	187.543	-0.491297
955.5	188.197	-0.489975
959.4	188.853	-0.489028
963.3	189.507	-0.488713
967.2	190.159	-0.487894
971.1	190.813	-0.487830
975	191.47	-0.488327
978.9	192.127	-0.488370
982.8	192.785	-0.488049
986.7	193.44	-0.486439
990.6	194.099	-0.483411
994.5	194.753	-0.480923
998.4	195.408	-0.479206
1002.3	196.069	-0.476285
1006.2	196.726	-0.474230
1010.1	197.382	-0.471379
1014	198.037	-0.468484
1017.9	198.693	-0.466644
1021.8	199.351	-0.464611
1025.7	200.007	-0.463284
1029.6	200.657	-0.461567
1033.5	201.316	-0.461075
1037.4	201.975	-0.460203
1041.3	202.629	-0.458796
1045.2	203.287	-0.457126
1049.1	203.939	-0.456083
1053	204.602	-0.453863
1056.9	205.259	-0.450589
1060.8	205.913	-0.449877
1064.7	206.566	-0.447390
1068.6	207.221	-0.445688
1072.5	207.879	-0.446432
1076.4	208.538	-0.445490
1080.3	209.196	-0.444212
1084.2	209.847	-0.442045
1088.1	210.514	-0.441831
1092	211.177	-0.439991
1095.9	211.835	-0.436561
1099.8	212.487	-0.433715
1103.7	213.148	-0.434202
1107.6	213.801	-0.432816
1111.5	214.455	-0.431816
1115.4	215.111	-0.431554
1119.3	215.767	-0.432517
1123.2	216.423	-0.433506
1127.1	217.086	-0.434432
1131	217.744	-0.433753
1134.9	218.398	-0.431366
1138.8	219.055	-0.429815
1142.7	219.706	-0.431677
1146.6	220.366	-0.433196
1150.5	221.031	-0.433335
1154.4	221.692	-0.432180
1156.2	221.993	-0.431506