File: DSC Data Files/DSC_PU_Sample3.txt
Time(sec)	Temp(C)	DSC(mW)
0.000000	30.4492	-0.420260
12.1001	30.5196	-0.563831
24.2002	32.2891	-0.375791
36.2998	34.3587	-0.202094
48.3999	36.4309	-0.129576
60.5	38.5064	-0.090302
72.6001	40.5736	-0.065339
84.7002	42.6417	-0.047834
96.7998	44.7098	-0.033721
108.9	46.7728	-0.021887
121	48.833	-0.010379
133.1	50.893	-0.001830
145.2	52.9528	0.005222
157.3	55.0144	0.009122
169.4	57.0737	0.012824
181.5	59.1277	0.018035
193.6	61.1767	0.026461
205.7	63.2316	0.036583
217.8	65.2844	0.043361
229.9	67.3344	0.048128
242	69.3813	0.050225
254.1	71.4234	0.052339
266.2	73.4676	0.053928
278.3	75.5143	0.054297
290.4	77.5578	0.052927
302.5	79.5981	0.051606
314.6	81.6417	0.048973
326.7	83.6821	0.045373
338.8	85.719	0.040858
350.9	87.752	0.036957
363	89.784	0.032560
375.1	91.822	0.027959
387.2	93.8538	0.022673
399.3	95.8861	0.018350
411.4	97.9129	0.012915
423.5	99.9396	0.008212
435.6	101.969	0.003804
447.7	103.99	-0.000284
459.8	106.017	-0.003253
471.9	108.04	-0.005430
484	110.059	-0.008934
496.1	112.075	-0.012893
508.2	114.089	-0.019977
520.3	116.104	-0.032447
532.4	118.119	-0.032795
544.5	120.128	-0.020105
556.6	122.139	-0.019185
568.7	124.146	-0.020442
580.8	126.152	-0.020453
592.9	128.157	-0.019886
605	130.157	-0.019094
617.1	132.156	-0.017917
629.2	134.15	-0.017452
641.3	136.148	-0.015884
653.4	138.14	-0.014600
665.5	140.133	-0.013985
677.6	142.123	-0.011989
689.7	144.107	-0.010304
701.8	146.094	-0.008950
713.9	148.072	-0.007222
726	150.052	-0.005072
738.1	152.034	-0.002129
750.2	154.016	0.001450
762.3	156.002	0.004810
774.4	157.992	0.009769
786.5	159.987	0.015584
798.6	161.984	0.020849
810.7	163.989	0.027825
822.8	165.998	0.036032
834.9	168.013	0.042762
847	170.032	0.052884
859.1	172.056	0.061985
871.2	174.079	0.067602
883.3	176.102	0.072727
895.4	178.128	0.078757
907.5	180.154	0.083384
919.6	182.188	0.087841
931.7	184.213	0.092613
943.8	186.245	0.097364
955.9	188.279	0.099696
968	190.31	0.106822
980.1	192.346	0.108438
992.2	194.383	0.114885
1004.3	196.415	0.120160
1016.4	198.451	0.121931
1028.5	200.488	0.126093
1040.6	202.525	0.129806
1052.7	204.564	0.135033
1064.8	206.6	0.140458
1076.9	208.637	0.144336
1089	210.677	0.149355
1101.1	212.716	0.152142
1113.2	214.753	0.154068
1125.3	216.788	0.163008
1137.4	218.827	0.164088
1149.5	220.286	0.211596
1161.6	220.366	0.060385
1173.7	220.372	0.024150
1185.8	220.375	0.018372
1197.9	220.378	0.015435
1210	220.382	0.015745
1222.1	220.385	0.016644
1234.2	220.389	0.015247
1246.3	220.394	0.016034
1258.4	220.398	0.015563
1270.5	220.401	0.016949
1282.6	220.407	0.017906
1294.7	220.409	0.016456
1306.8	220.413	0.020790
1318.9	220.418	0.019543
1331	220.417	0.017858
1343.1	220.416	0.018083
1355.2	220.422	0.018976
1367.3	220.426	0.018821
1379.4	220.429	0.019725
1391.5	220.436	0.021304
1403.6	220.434	0.022395
1415.7	220.44	0.022700
1427.8	220.44	0.021528
1439.9	220.445	0.020207
1452	220.445	0.023096
1464.1	220.449	0.022208
1476.2	220.453	0.024214
1488.3	220.453	0.023251
1500.4	220.452	0.023679
1512.5	220.456	0.024524
1524.6	220.457	0.024722
1536.7	220.457	0.025145
1548.8	220.462	0.026151
1560.9	220.467	0.026172
1573	220.469	0.025466
1585.1	220.466	0.025867
1597.2	220.469	0.026327
1609.3	220.474	0.027584
1621.4	220.475	0.027611
1633.5	220.477	0.028756
1645.6	220.481	0.028007
1657.7	220.482	0.027552
1669.8	220.484	0.029468
1681.9	220.484	0.030425
1694	220.486	0.032233
1706.1	220.49	0.031618
1718.2	220.489	0.031249
1730.3	220.489	0.032485
1742.4	220.489	0.034801
1754.5	219.179	0.016954
1766.6	217.15	-0.118812
1778.7	215.126	-0.137852
1790.8	213.098	-0.147546
1802.9	211.07	-0.152340
1815	209.04	-0.155892
1827.1	207.013	-0.161563
1839.2	204.99	-0.165827
1851.3	202.961	-0.169363
1863.4	200.937	-0.172953
1875.5	198.917	-0.177164
1887.6	196.89	-0.179325
1899.7	194.87	-0.183691
1911.8	192.844	-0.189051
1923.9	190.821	-0.193032
1936	188.8	-0.196044
1948.1	186.782	-0.199430
1960.2	184.759	-0.202940
1972.3	182.744	-0.207214
1984.4	180.722	-0.210777
1996.5	178.705	-0.216068
2008.6	176.69	-0.219974
2020.7	174.674	-0.232108
2032.8	172.662	-0.230444
2044.9	170.65	-0.233397
2057	168.645	-0.237661
2069.1	166.639	-0.241935
2081.2	164.641	-0.245210
2093.3	162.647	-0.250394
2105.4	160.661	-0.254342
2117.5	158.675	-0.257472
2129.6	156.699	-0.260789
2141.7	154.721	-0.265352
2153.8	152.748	-0.268418
2165.9	150.777	-0.272398
2178	148.808	-0.282836
2190.1	146.841	-0.284007
2202.2	144.871	-0.286356
2214.3	142.897	-0.290331
2226.4	140.924	-0.294761
2238.5	138.949	-0.298254
2250.6	136.966	-0.302898
2262.7	134.983	-0.306253
2274.8	133.004	-0.310238
2286.9	131.018	-0.314513
2299	129.026	-0.318429
2311.1	127.044	-0.321168
2323.2	125.057	-0.325100
2335.3	123.074	-0.329033
2347.4	121.077	-0.332483
2359.5	119.083	-0.336721
2371.6	117.085	-0.340845
2383.7	115.088	-0.344457
2395.8	113.092	-0.348335
2407.9	111.093	-0.353712
2420	109.093	-0.359147
2432.1	107.096	-0.363850
2444.2	105.101	-0.367761
2456.3	103.101	-0.373084
2468.4	101.101	-0.376957
2480.5	99.1055	-0.380579
2492.6	97.1152	-0.384506
2504.7	95.1368	-0.386737
2516.8	93.1691	-0.389391
2528.9	91.223	-0.392050
2541	89.3189	-0.393007
2553.1	87.4693	-0.391135
2565.2	85.673	-0.389343
2577.3	83.9225	-0.387566
2589.4	82.2252	-0.385309
2601.5	80.5817	-0.382500
2613.6	78.9907	-0.381077
2625.7	77.4556	-0.379311
2637.8	75.9661	-0.377492
2649.9	74.5242	-0.375026
2662	73.1258	-0.373330
2674.1	71.7692	-0.371308
2686.2	70.4567	-0.369655
2698.3	69.1788	-0.368125
2710.4	67.9406	-0.366397
2722.5	66.7362	-0.364856
2734.6	65.572	-0.363042
2746.7	64.4419	-0.361731
2758.8	63.3523	-0.360651
2770.9	62.2917	-0.359511
2783	61.2611	-0.358163
2795.1	60.262	-0.356922
2807.2	59.288	-0.355954
2819.3	58.3372	-0.354119
2831.4	57.4157	-0.353279
2843.5	56.5208	-0.352262
2855.6	55.6522	-0.351363
2867.7	54.8079	-0.350427
2879.8	53.9928	-0.349357
2891.9	53.2012	-0.348325
2904	52.4297	-0.347249
2916.1	51.6819	-0.346586
2928.2	50.9567	-0.345853
2940.3	50.25	-0.344628
2952.4	49.5641	-0.343986
2964.5	48.8957	-0.342991
2976.6	48.2444	-0.342611
2988.7	47.6121	-0.341974
3000.8	46.9969	-0.341214
3012.9	46.3957	-0.340583
3025	45.8149	-0.339941
3037.1	45.2532	-0.339353
3049.2	44.7036	-0.338347
3061.3	44.167	-0.337748
3073.4	43.6449	-0.337416
3085.5	43.1399	-0.336865
3097.6	42.6455	-0.336180
3109.7	42.1656	-0.335923
3121.8	41.6954	-0.335565
3133.9	41.2429	-0.335083
3146	40.8011	-0.334511
3158.1	40.3707	-0.333778
3170.2	39.9524	-0.333371
3182.3	39.5465	-0.333029
3194.4	39.1479	-0.332585
3206.5	38.7624	-0.332136
3218.6	38.3838	-0.331697
3230.7	38.0176	-0.331611
3242.8	37.6606	-0.331419
3254.9	37.3151	-0.330841
3267	36.9772	-0.330381
3279.1	36.6466	-0.330557
3291.2	36.3245	-0.329846
3303.3	36.0133	-0.329546
3315.4	35.7063	-0.329461
3327.5	35.4122	-0.328984
3339.6	35.123	-0.328899
3351.7	34.8384	-0.328278
3363.8	34.5632	-0.327995
3375.9	34.2943	-0.328171
3388	34.0329	-0.328139
3400.1	33.7776	-0.327406
3412.2	33.5313	-0.327379
3424.3	33.2864	-0.326919
3436.4	33.051	-0.326561
3448.5	32.8203	-0.326582
3460.6	32.5966	-0.326037
3472.7	32.3794	-0.326507
3484.8	32.1657	-0.325871
3496.9	31.9581	-0.326293
3509	31.7558	-0.325651
3521.1	31.558	-0.325443
3533.2	31.3653	-0.325437
3545.3	31.1763	-0.325074
3557.4	30.9936	-0.325122
3569.5	30.8162	-0.324325
3581.6	30.6432	-0.324897
3593.7	30.4753	-0.324410
3605.8	30.3113	-0.324020
3617.9	30.1517	-0.324004
3629.6	30.0005	-0.324298